Absorption wavelength (nm);normalized Absorption;emission wavelength (nm);Normalized emission;
300;0.0230;555;0.0387;
301;0.0065;556;0.0496;
302;0.0213;557;0.0652;
303;0.0051;558;0.0859;
304;0.0119;559;0.1139;
305;0.0148;560;0.1495;
306;0.0176;561;0.1958;
307;0.0288;562;0.2550;
308;0.0217;563;0.3285;
309;0.0165;564;0.4164;
310;0.0285;565;0.5165;
311;0.0122;566;0.6265;
312;0.0337;567;0.7357;
313;0.0386;568;0.8402;
314;0.0272;569;0.9212;
315;0.0229;570;0.9755;
316;0.0457;571;1.0000;
317;0.0284;572;0.9873;
318;0.0337;573;0.9458;
319;0.0318;574;0.8794;
320;0.0494;575;0.7942;
321;0.0376;576;0.7032;
322;0.0526;577;0.6110;
323;0.0374;578;0.5286;
324;0.0511;579;0.4529;
325;0.0464;580;0.3877;
326;0.0548;581;0.3347;
327;0.0530;582;0.2915;
328;0.0498;583;0.2536;
329;0.0504;584;0.2228;
330;0.0519;585;0.1972;
331;0.0493;586;0.1773;
332;0.0433;587;0.1617;
333;0.0627;588;0.1502;
334;0.0471;589;0.1442;
335;0.0547;590;0.1396;
336;0.0437;591;0.1385;
337;0.0562;592;0.1412;
338;0.0442;593;0.1441;
339;0.0544;594;0.1481;
340;0.0547;595;0.1523;
341;0.0460;596;0.1551;
342;0.0482;597;0.1572;
343;0.0501;598;0.1594;
344;0.0518;599;0.1606;
345;0.0438;600;0.1630;
346;0.0526;601;0.1643;
347;0.0504;602;0.1666;
348;0.0491;603;0.1710;
349;0.0497;604;0.1758;
350;0.0482;605;0.1813;
351;0.0542;606;0.1876;
352;0.0474;607;0.1944;
353;0.0520;608;0.2039;
354;0.0468;609;0.2121;
355;0.0449;610;0.2225;
356;0.0470;611;0.2330;
357;0.0405;612;0.2458;
358;0.0558;613;0.2558;
359;0.0540;614;0.2670;
360;0.0426;615;0.2787;
361;0.0465;616;0.2912;
362;0.0497;617;0.3028;
363;0.0501;618;0.3161;
364;0.0543;619;0.3278;
365;0.0531;620;0.3409;
366;0.0548;621;0.3579;
367;0.0577;622;0.3720;
368;0.0537;623;0.3871;
369;0.0624;624;0.3969;
370;0.0589;625;0.4041;
371;0.0551;626;0.3997;
372;0.0638;627;0.3926;
373;0.0753;628;0.3776;
374;0.0757;629;0.3572;
375;0.0888;630;0.3343;
376;0.0815;631;0.3094;
377;0.0857;632;0.2800;
378;0.0996;633;0.2531;
379;0.1095;634;0.2252;
380;0.1174;635;0.2020;
381;0.1302;636;0.1764;
382;0.1363;637;0.1550;
383;0.1445;638;0.1358;
384;0.1404;639;0.1199;
385;0.1500;640;0.1061;
386;0.1620;641;0.0942;
387;0.1646;642;0.0838;
388;0.1754;643;0.0742;
389;0.1814;644;0.0671;
390;0.2094;645;0.0608;
391;0.2364;646;0.0568;
392;0.2549;647;0.0516;
393;0.2941;648;0.0477;
394;0.3321;649;0.0451;
395;0.3783;650;0.0426;
396;0.4657;651;0.0399;
397;0.5406;652;0.0396;
398;0.6208;653;0.0377;
399;0.7160;654;0.0374;
400;0.7912;655;0.0356;
401;0.8724;656;0.0345;
402;0.9346;657;0.0326;
403;0.9797;658;0.0312;
404;1.0000;659;0.0299;
405;0.9794;660;0.0282;
406;0.9444;661;0.0273;
407;0.8739;662;0.0264;
408;0.7834;663;0.0248;
409;0.6837;664;0.0250;
410;0.5706;665;0.0241;
411;0.4721;666;0.0233;
412;0.3710;667;0.0224;
413;0.2921;668;0.0224;
414;0.2247;669;0.0224;
415;0.1831;670;0.0218;
416;0.1359;671;0.0216;
417;0.0970;672;0.0211;
418;0.0703;673;0.0207;
419;0.0467;674;0.0203;
420;0.0335;675;0.0196;
421;0.0242;676;0.0195;
422;0.0168;677;0.0182;
423;0.0135;678;0.0185;
424;0.0111;679;0.0176;
425;0.0100;680;0.0170;
426;0.0022;681;0.0163;
427;0.0043;682;0.0161;
428;0.0036;683;0.0156;
429;0.0029;684;0.0152;
430;0.0024;685;0.0146;
486;0.0020;686;0.0144;
487;0.0010;687;0.0136;
489;0.0020;688;0.0132;
490;0.0021;689;0.0131;
493;0.0029;690;0.0127;
497;0.0027;691;0.0122;
498;0.0018;692;0.0125;
499;0.0002;693;0.0114;
500;0.0001;694;0.0109;
503;0.0003;695;0.0104;
505;0.0000;696;0.0100;
509;0.0005;697;0.0095;
510;0.0026;698;0.0086;
511;0.0046;699;0.0083;
512;0.0009;700;0.0079;
514;0.0087;701;0.0071;
515;0.0024;702;0.0069;
516;0.0082;703;0.0062;
517;0.0061;704;0.0059;
518;0.0072;705;0.0055;
519;0.0143;706;0.0053;
520;0.0128;707;0.0049;
521;0.0202;708;0.0047;
522;0.0218;709;0.0045;
523;0.0249;710;0.0041;
524;0.0261;711;0.0038;
525;0.0299;712;0.0037;
526;0.0327;713;0.0036;
527;0.0380;714;0.0039;
528;0.0368;715;0.0032;
529;0.0444;716;0.0035;
530;0.0443;717;0.0031;
531;0.0475;718;0.0032;
532;0.0465;719;0.0030;
533;0.0465;720;0.0031;
534;0.0474;721;0.0026;
535;0.0438;722;0.0026;
536;0.0461;723;0.0023;
537;0.0399;724;0.0026;
538;0.0376;725;0.0028;
539;0.0295;726;0.0026;
540;0.0283;727;0.0025;
541;0.0261;728;0.0027;
542;0.0198;729;0.0021;
543;0.0235;730;0.0024;
544;0.0166;731;0.0024;
545;0.0167;732;0.0025;
546;0.0149;733;0.0023;
547;0.0136;734;0.0026;
548;0.0110;735;0.0025;
549;0.0111;736;0.0024;
550;0.0120;737;0.0022;
551;0.0123;738;0.0029;
552;0.0100;739;0.0024;
553;0.0074;740;0.0021;
554;0.0114;741;0.0019;
555;0.0121;742;0.0024;
556;0.0141;743;0.0031;
557;0.0167;744;0.0020;
558;0.0184;745;0.0019;
559;0.0230;746;0.0026;
560;0.0349;747;0.0021;
561;0.0352;748;0.0023;
562;0.0420;749;0.0020;
563;0.0512;750;0.0021;
564;0.0609;751;0.0021;
565;0.0677;752;0.0019;
566;0.0728;753;0.0024;
567;0.0828;754;0.0016;
568;0.0892;755;0.0022;
569;0.0885;756;0.0015;
570;0.0904;757;0.0017;
571;0.0800;758;0.0018;
572;0.0696;759;0.0015;
573;0.0569;760;0.0010;
574;0.0537;761;0.0017;
575;0.0382;762;0.0015;
576;0.0272;763;0.0016;
577;0.0226;764;0.0019;
578;0.0152;765;0.0013;
579;0.0077;766;0.0016;
580;0.0093;767;0.0010;
581;0.0026;768;0.0025;
582;0.0012;769;0.0019;
583;0.0008;770;0.0010;
586;0.0010;771;0.0017;
651;0.0003;772;0.0019;
668;0.0006;773;0.0015;
718;0.0009;774;0.0015;
741;0.0002;775;0.0016;
744;0.0014;776;0.0015;
754;0.0025;777;0.0011;
759;0.0021;778;0.0012;
766;0.0003;779;0.0019;
779;0.0023;780;0.0014;
784;0.0002;781;0.0018;
795;0.0002;782;0.0017;
796;0.0007;783;0.0014;
;;784;0.0012;
;;785;0.0011;
;;786;0.0015;
;;787;0.0011;
;;788;0.0013;
;;789;0.0017;
;;790;0.0016;
;;791;0.0019;
;;792;0.0008;
;;793;0.0018;
;;794;0.0019;
;;795;0.0010;
;;796;0.0016;
;;797;0.0004;
;;798;0.0011;
;;799;0.0016;
