Exitation wavelength (nm);normalized Exitation;emission wavelength (nm);Normalized emission;
300;0.1499;370;0.0343;
301;0.1566;371;0.0344;
302;0.1639;372;0.0389;
303;0.1701;373;0.0466;
304;0.1764;374;0.0558;
305;0.1832;375;0.0691;
306;0.1890;376;0.0836;
307;0.1934;377;0.1019;
308;0.2008;378;0.1239;
309;0.2072;379;0.1482;
310;0.2146;380;0.1771;
311;0.2222;381;0.2082;
312;0.2298;382;0.2411;
313;0.2381;383;0.2777;
314;0.2431;384;0.3158;
315;0.2488;385;0.3571;
316;0.2540;386;0.4002;
317;0.2591;387;0.4418;
318;0.2653;388;0.4843;
319;0.2697;389;0.5261;
320;0.2751;390;0.5641;
321;0.2845;391;0.6030;
322;0.2953;392;0.6391;
323;0.3058;393;0.6764;
324;0.3191;394;0.7116;
325;0.3364;395;0.7407;
326;0.3556;396;0.7705;
327;0.3746;397;0.7992;
328;0.3990;398;0.8216;
329;0.4228;399;0.8421;
330;0.4463;400;0.8607;
331;0.4719;401;0.8804;
332;0.4969;402;0.8946;
333;0.5219;403;0.9102;
334;0.5524;404;0.9206;
335;0.5778;405;0.9358;
336;0.6048;406;0.9483;
337;0.6304;407;0.9621;
338;0.6565;408;0.9731;
339;0.6815;409;0.9821;
340;0.7075;410;0.9894;
341;0.7333;411;0.9951;
342;0.7614;412;0.9972;
343;0.7867;413;0.9992;
344;0.8101;414;1.0000;
345;0.8377;415;0.9939;
346;0.8600;416;0.9892;
347;0.8846;417;0.9829;
348;0.9054;418;0.9739;
349;0.9293;419;0.9626;
350;0.9444;420;0.9493;
351;0.9600;421;0.9364;
352;0.9739;422;0.9239;
353;0.9880;423;0.9091;
354;0.9923;424;0.8942;
355;0.9971;425;0.8780;
356;1.0000;426;0.8625;
357;0.9941;427;0.8439;
358;0.9893;428;0.8268;
359;0.9868;429;0.8097;
360;0.9781;430;0.7909;
361;0.9711;431;0.7756;
362;0.9663;432;0.7587;
363;0.9552;433;0.7433;
364;0.9448;434;0.7250;
365;0.9391;435;0.7064;
366;0.9266;436;0.6899;
367;0.9161;437;0.6720;
368;0.9038;438;0.6549;
369;0.8897;439;0.6354;
370;0.8698;440;0.6169;
371;0.8466;441;0.5984;
372;0.8186;442;0.5812;
373;0.7858;443;0.5621;
374;0.7539;444;0.5438;
375;0.7091;445;0.5257;
376;0.6658;446;0.5090;
377;0.6200;447;0.4914;
378;0.5758;448;0.4748;
379;0.5280;449;0.4588;
380;0.4790;450;0.4422;
381;0.4296;451;0.4271;
382;0.3840;452;0.4121;
383;0.3406;453;0.3960;
384;0.3001;454;0.3825;
385;0.2630;455;0.3704;
386;0.2301;456;0.3558;
387;0.1996;457;0.3431;
388;0.1726;458;0.3298;
389;0.1472;459;0.3168;
390;0.1256;460;0.3043;
391;0.1070;461;0.2931;
392;0.0909;462;0.2811;
393;0.0775;463;0.2700;
394;0.0662;464;0.2599;
395;0.0568;465;0.2504;
396;0.0483;466;0.2392;
397;0.0417;467;0.2282;
398;0.0362;468;0.2186;
399;0.0312;469;0.2098;
400;0.0270;470;0.2008;
401;0.0237;471;0.1924;
402;0.0211;472;0.1847;
403;0.0190;473;0.1772;
404;0.0173;474;0.1689;
405;0.0162;475;0.1625;
406;0.0154;476;0.1554;
407;0.0150;477;0.1487;
408;0.0146;478;0.1422;
409;0.0145;479;0.1366;
410;0.0145;480;0.1310;
;;481;0.1253;
;;482;0.1204;
;;483;0.1152;
;;484;0.1099;
;;485;0.1063;
;;486;0.1013;
;;487;0.0969;
;;488;0.0929;
;;489;0.0882;
;;490;0.0841;
;;491;0.0800;
;;492;0.0767;
;;493;0.0742;
;;494;0.0721;
;;495;0.0696;
;;496;0.0675;
;;497;0.0648;
;;498;0.0631;
;;499;0.0612;
;;500;0.0590;
;;501;0.0568;
;;502;0.0546;
;;503;0.0525;
;;504;0.0507;
;;505;0.0491;
;;506;0.0476;
;;507;0.0454;
;;508;0.0442;
;;509;0.0428;
;;510;0.0413;
;;511;0.0402;
;;512;0.0386;
;;513;0.0379;
;;514;0.0368;
;;515;0.0354;
;;516;0.0339;
;;517;0.0327;
;;518;0.0321;
;;519;0.0310;
;;520;0.0301;
;;521;0.0298;
;;522;0.0283;
;;523;0.0276;
;;524;0.0265;
;;525;0.0254;
;;526;0.0245;
;;527;0.0242;
;;528;0.0236;
;;529;0.0226;
;;530;0.0216;
;;531;0.0209;
;;532;0.0201;
;;533;0.0195;
;;534;0.0189;
;;535;0.0186;
;;536;0.0177;
;;537;0.0169;
;;538;0.0167;
;;539;0.0161;
;;540;0.0158;
;;541;0.0153;
;;542;0.0149;
;;543;0.0145;
;;544;0.0143;
;;545;0.0141;
;;546;0.0138;
;;547;0.0134;
;;548;0.0132;
;;549;0.0127;
;;550;0.0126;
;;551;0.0124;
;;552;0.0120;
;;553;0.0119;
;;554;0.0116;
;;555;0.0116;
;;556;0.0112;
;;557;0.0111;
;;558;0.0107;
;;559;0.0105;
;;560;0.0106;
;;561;0.0107;
;;562;0.0104;
;;563;0.0103;
;;564;0.0102;
;;565;0.0100;
;;566;0.0099;
;;567;0.0097;
;;568;0.0096;
;;569;0.0094;
;;570;0.0092;
;;571;0.0089;
;;572;0.0087;
;;573;0.0085;
;;574;0.0087;
;;575;0.0087;
;;576;0.0083;
;;577;0.0083;
;;578;0.0082;
;;579;0.0080;
;;580;0.0077;
;;581;0.0077;
;;582;0.0076;
;;583;0.0076;
;;584;0.0072;
;;585;0.0068;
;;586;0.0067;
;;587;0.0068;
;;588;0.0063;
;;589;0.0065;
;;590;0.0064;
;;591;0.0061;
;;592;0.0061;
;;593;0.0057;
;;594;0.0056;
;;595;0.0056;
;;596;0.0055;
;;597;0.0052;
;;598;0.0053;
;;599;0.0051;
