Absorption wavelength (nm);normalized Absorption;emission wavelength (nm);Normalized emission;
349;0.0650;450;0.0061;
351;0.0646;450;0.0061;
352;0.0645;450;0.0061;
352;0.0642;450;0.0061;
354;0.0638;450;0.0061;
354;0.0631;451;0.0062;
356;0.0623;451;0.0062;
356;0.0623;451;0.0062;
358;0.0612;451;0.0062;
358;0.0603;451;0.0061;
359;0.0599;452;0.0064;
361;0.0590;452;0.0063;
361;0.0577;452;0.0063;
363;0.0563;452;0.0062;
363;0.0567;452;0.0062;
365;0.0546;453;0.0066;
365;0.0535;453;0.0066;
367;0.0524;453;0.0065;
367;0.0508;453;0.0065;
369;0.0502;453;0.0064;
370;0.0468;454;0.0069;
370;0.0485;454;0.0068;
372;0.0456;454;0.0068;
372;0.0442;454;0.0067;
374;0.0426;454;0.0067;
374;0.0411;455;0.0074;
376;0.0390;455;0.0073;
376;0.0382;455;0.0072;
378;0.0360;455;0.0072;
378;0.0366;455;0.0070;
380;0.0349;456;0.0081;
380;0.0330;456;0.0079;
382;0.0316;456;0.0078;
383;0.0301;456;0.0077;
383;0.0292;456;0.0076;
385;0.0277;457;0.0088;
385;0.0284;457;0.0087;
387;0.0263;457;0.0085;
387;0.0256;457;0.0083;
389;0.0247;457;0.0082;
389;0.0248;458;0.0097;
391;0.0243;458;0.0095;
391;0.0240;458;0.0094;
393;0.0235;458;0.0092;
393;0.0244;458;0.0090;
395;0.0234;459;0.0109;
395;0.0244;459;0.0106;
397;0.0243;459;0.0104;
397;0.0249;459;0.0102;
399;0.0262;459;0.0100;
399;0.0251;460;0.0123;
401;0.0262;460;0.0120;
401;0.0276;460;0.0117;
403;0.0282;460;0.0114;
403;0.0303;460;0.0112;
404;0.0310;461;0.0139;
406;0.0341;461;0.0135;
406;0.0318;461;0.0132;
408;0.0358;461;0.0128;
408;0.0374;461;0.0126;
410;0.0396;462;0.0159;
410;0.0406;462;0.0154;
412;0.0430;462;0.0150;
412;0.0454;462;0.0146;
414;0.0509;462;0.0143;
414;0.0485;463;0.0183;
416;0.0530;463;0.0178;
416;0.0550;463;0.0172;
418;0.0584;463;0.0168;
418;0.0616;463;0.0164;
420;0.0676;464;0.0212;
420;0.0651;464;0.0206;
422;0.0705;464;0.0200;
422;0.0739;464;0.0194;
424;0.0783;464;0.0188;
424;0.0826;465;0.0245;
425;0.0860;465;0.0238;
427;0.0943;465;0.0231;
427;0.0906;465;0.0224;
429;0.1003;465;0.0218;
429;0.1049;466;0.0286;
431;0.1097;466;0.0277;
431;0.1152;466;0.0268;
433;0.1265;466;0.0261;
433;0.1204;466;0.0252;
435;0.1328;467;0.0334;
435;0.1385;467;0.0324;
437;0.1450;467;0.0315;
437;0.1507;467;0.0305;
439;0.1589;467;0.0295;
439;0.1654;468;0.0392;
441;0.1792;468;0.0380;
441;0.1724;468;0.0368;
443;0.1873;468;0.0356;
443;0.1936;468;0.0345;
445;0.2020;469;0.0458;
445;0.2095;469;0.0444;
446;0.2189;469;0.0430;
448;0.2346;469;0.0417;
448;0.2280;469;0.0404;
450;0.2443;470;0.0530;
450;0.2525;470;0.0514;
452;0.2622;470;0.0500;
452;0.2728;470;0.0486;
454;0.2913;470;0.0472;
454;0.2835;471;0.0611;
456;0.3020;471;0.0595;
456;0.3124;471;0.0578;
457;0.3254;471;0.0562;
459;0.3390;471;0.0545;
459;0.3468;472;0.0702;
461;0.3700;472;0.0684;
461;0.3590;472;0.0666;
463;0.3856;472;0.0647;
463;0.3979;472;0.0628;
465;0.4102;473;0.0802;
465;0.4200;473;0.0780;
466;0.4347;473;0.0760;
468;0.4623;473;0.0740;
468;0.4494;473;0.0721;
470;0.4753;474;0.0911;
470;0.4850;474;0.0888;
472;0.4984;474;0.0866;
472;0.5119;474;0.0844;
474;0.5262;474;0.0823;
475;0.5503;475;0.1028;
475;0.5399;475;0.1005;
477;0.5626;475;0.0980;
477;0.5762;475;0.0957;
479;0.5890;475;0.0934;
479;0.6016;476;0.1153;
480;0.6150;476;0.1127;
482;0.6418;476;0.1103;
482;0.6291;476;0.1078;
484;0.6550;476;0.1053;
484;0.6680;477;0.1281;
486;0.6823;477;0.1256;
487;0.7001;477;0.1230;
487;0.7110;477;0.1203;
489;0.7386;477;0.1178;
489;0.7254;478;0.1411;
491;0.7567;478;0.1386;
491;0.7725;478;0.1359;
492;0.7873;478;0.1333;
494;0.8009;478;0.1306;
494;0.8152;479;0.1541;
496;0.8479;479;0.1515;
496;0.8318;479;0.1489;
497;0.8619;479;0.1463;
499;0.8749;479;0.1437;
499;0.8856;480;0.1668;
501;0.8987;480;0.1640;
501;0.9116;480;0.1614;
502;0.9234;480;0.1590;
504;0.9400;480;0.1567;
504;0.9335;481;0.1790;
506;0.9489;481;0.1766;
507;0.9575;481;0.1741;
507;0.9637;481;0.1716;
509;0.9690;481;0.1693;
509;0.9727;482;0.1905;
510;0.9765;482;0.1884;
512;0.9797;482;0.1861;
512;0.9814;482;0.1838;
514;0.9834;482;0.1815;
515;0.9845;483;0.2014;
515;0.9841;483;0.1994;
517;0.9844;483;0.1973;
517;0.9846;483;0.1952;
518;0.9844;483;0.1929;
520;0.9842;484;0.2108;
520;0.9845;484;0.2089;
522;0.9844;484;0.2071;
523;0.9851;484;0.2051;
523;0.9853;484;0.2033;
525;0.9877;485;0.2187;
525;0.9858;485;0.2172;
526;0.9893;485;0.2156;
528;0.9909;485;0.2140;
528;0.9923;485;0.2125;
529;0.9943;486;0.2253;
531;0.9987;486;0.2242;
531;0.9967;486;0.2228;
532;0.9998;486;0.2214;
534;1.0008;486;0.2201;
534;1.0009;487;0.2304;
535;1.0000;487;0.2297;
537;0.9978;487;0.2287;
537;0.9954;487;0.2277;
539;0.9914;487;0.2265;
540;0.9849;488;0.2341;
540;0.9780;488;0.2333;
542;0.9694;488;0.2327;
543;0.9597;488;0.2320;
543;0.9463;488;0.2314;
545;0.9303;489;0.2360;
546;0.8977;489;0.2357;
546;0.9115;489;0.2353;
547;0.8766;489;0.2349;
549;0.8544;489;0.2344;
549;0.8277;490;0.2364;
550;0.8003;490;0.2363;
552;0.7763;490;0.2362;
552;0.7539;490;0.2361;
553;0.7238;490;0.2361;
555;0.6901;491;0.2356;
555;0.6550;491;0.2358;
556;0.6268;491;0.2361;
558;0.5955;491;0.2363;
559;0.5651;491;0.2364;
559;0.5300;492;0.2333;
561;0.4995;492;0.2339;
562;0.4663;492;0.2344;
562;0.4379;492;0.2348;
563;0.4057;492;0.2352;
565;0.3758;493;0.2301;
565;0.3486;493;0.2308;
566;0.3212;493;0.2315;
568;0.2947;493;0.2320;
569;0.2626;493;0.2327;
569;0.2422;494;0.2258;
570;0.2230;494;0.2268;
572;0.2004;494;0.2279;
572;0.1833;494;0.2287;
573;0.1610;494;0.2294;
575;0.1425;495;0.2214;
576;0.1285;495;0.2224;
576;0.1187;495;0.2233;
577;0.1052;495;0.2242;
579;0.0919;495;0.2251;
579;0.0821;496;0.2162;
580;0.0729;496;0.2174;
582;0.0649;496;0.2183;
583;0.0505;496;0.2194;
583;0.0562;496;0.2204;
584;0.0445;497;0.2107;
586;0.0394;497;0.2118;
587;0.0341;497;0.2129;
587;0.0296;497;0.2140;
588;0.0258;497;0.2152;
590;0.0231;498;0.2055;
591;0.0194;498;0.2066;
591;0.0175;498;0.2076;
592;0.0148;498;0.2087;
594;0.0129;498;0.2096;
595;0.0116;499;0.2002;
595;0.0105;499;0.2013;
596;0.0089;499;0.2023;
598;0.0079;499;0.2034;
599;0.0065;499;0.2044;
599;0.0063;500;0.1946;
600;0.0058;500;0.1958;
602;0.0048;500;0.1968;
603;0.0044;500;0.1979;
603;0.0042;500;0.1990;
604;0.0035;501;0.1889;
605;0.0029;501;0.1900;
607;0.0026;501;0.1911;
608;0.0031;501;0.1923;
608;0.0018;501;0.1935;
609;0.0020;502;0.1836;
611;0.0017;502;0.1846;
612;0.0017;502;0.1856;
613;0.0016;502;0.1866;
613;0.0016;502;0.1878;
614;0.0013;503;0.1785;
616;0.0017;503;0.1795;
617;0.0009;503;0.1804;
617;0.0010;503;0.1814;
618;0.0009;503;0.1824;
619;0.0016;504;0.1742;
621;0.0021;504;0.1749;
622;0.0012;504;0.1757;
622;0.0017;504;0.1765;
623;0.0016;504;0.1775;
624;0.0009;505;0.1700;
626;0.0011;505;0.1708;
627;0.0018;505;0.1716;
628;0.0013;505;0.1724;
628;0.0006;505;0.1732;
629;0.0009;506;0.1657;
631;0.0013;506;0.1666;
632;0.0008;506;0.1674;
633;0.0009;506;0.1680;
633;0.0008;506;0.1691;
634;0.0005;507;0.1625;
635;0.0010;507;0.1631;
637;0.0015;507;0.1637;
638;0.0011;507;0.1643;
639;0.0004;507;0.1649;
639;0.0004;508;0.1594;
640;0.0011;508;0.1601;
641;0.0011;508;0.1606;
643;0.0008;508;0.1612;
644;0.0010;508;0.1618;
645;0.0012;509;0.1565;
646;0.0012;509;0.1570;
646;0.0014;509;0.1576;
647;0.0009;509;0.1582;
648;0.0005;509;0.1587;
650;0.0010;510;0.1538;
651;0.0012;510;0.1543;
652;0.0015;510;0.1550;
653;0.0011;510;0.1553;
653;0.0010;510;0.1558;
654;0.0014;511;0.1514;
655;0.0017;511;0.1518;
656;0.0014;511;0.1522;
658;0.0010;511;0.1529;
659;0.0015;511;0.1533;
660;0.0003;512;0.1492;
661;0.0017;512;0.1497;
661;0.0020;512;0.1501;
662;0.0021;512;0.1505;
663;0.0021;512;0.1511;
664;0.0017;513;0.1473;
666;0.0008;513;0.1477;
667;0.0013;513;0.1480;
668;0.0018;513;0.1485;
669;0.0020;513;0.1488;
670;0.0018;514;0.1454;
670;0.0016;514;0.1457;
671;0.0016;514;0.1461;
672;0.0026;514;0.1465;
673;0.0024;514;0.1469;
674;0.0019;515;0.1436;
676;0.0020;515;0.1439;
677;0.0025;515;0.1443;
678;0.0027;515;0.1446;
679;0.0017;515;0.1450;
680;0.0022;516;0.1420;
681;0.0017;516;0.1424;
682;0.0017;516;0.1428;
682;0.0024;516;0.1431;
683;0.0018;516;0.1433;
684;0.0026;517;0.1402;
685;0.0022;517;0.1406;
686;0.0025;517;0.1410;
687;0.0027;517;0.1413;
688;0.0024;517;0.1415;
690;0.0021;518;0.1388;
691;0.0026;518;0.1392;
692;0.0030;518;0.1395;
693;0.0026;518;0.1398;
694;0.0017;518;0.1400;
695;0.0013;519;0.1375;
696;0.0027;519;0.1378;
697;0.0017;519;0.1380;
698;0.0028;519;0.1382;
699;0.0025;519;0.1385;
700;0.0024;520;0.1360;
701;0.0019;520;0.1364;
701;0.0019;520;0.1367;
702;0.0020;520;0.1370;
703;0.0026;520;0.1373;
704;0.0029;521;0.1345;
705;0.0019;521;0.1349;
706;0.0021;521;0.1352;
707;0.0024;521;0.1355;
708;0.0022;521;0.1358;
709;0.0018;522;0.1327;
710;0.0026;522;0.1331;
711;0.0018;522;0.1336;
712;0.0023;522;0.1340;
713;0.0016;522;0.1343;
714;0.0023;523;0.1309;
715;0.0010;523;0.1312;
716;0.0017;523;0.1316;
717;0.0013;523;0.1319;
718;0.0020;523;0.1323;
719;0.0021;524;0.1287;
720;0.0023;524;0.1292;
721;0.0016;524;0.1296;
722;0.0020;524;0.1301;
723;0.0018;524;0.1305;
724;0.0014;525;0.1264;
725;0.0017;525;0.1268;
726;0.0015;525;0.1272;
728;0.0019;525;0.1277;
729;0.0020;525;0.1282;
730;0.0018;526;0.1242;
731;0.0013;526;0.1246;
732;0.0018;526;0.1251;
733;0.0015;526;0.1256;
734;0.0016;526;0.1260;
735;0.0018;527;0.1222;
736;0.0014;527;0.1226;
737;0.0017;527;0.1229;
738;0.0017;527;0.1234;
738;0.0019;527;0.1237;
739;0.0020;528;0.1202;
740;0.0017;528;0.1206;
741;0.0018;528;0.1211;
742;0.0017;528;0.1215;
743;0.0004;528;0.1219;
744;0.0019;529;0.1179;
746;0.0016;529;0.1183;
747;0.0014;529;0.1188;
748;0.0015;529;0.1193;
749;0.0022;529;0.1198;
750;0.0021;530;0.1159;
751;0.0009;530;0.1163;
751;0.0022;530;0.1167;
752;0.0010;530;0.1172;
753;0.0018;530;0.1175;
754;0.0020;531;0.1141;
755;0.0012;531;0.1144;
757;0.0025;531;0.1148;
758;0.0020;531;0.1152;
759;0.0023;531;0.1156;
760;0.0021;532;0.1124;
761;0.0028;532;0.1128;
761;0.0015;532;0.1131;
762;0.0019;532;0.1134;
764;0.0019;532;0.1137;
766;0.0006;533;0.1112;
767;0.0017;533;0.1114;
768;0.0019;533;0.1116;
769;0.0027;533;0.1118;
769;0.0020;533;0.1121;
770;0.0013;534;0.1101;
771;0.0001;534;0.1103;
773;0.0014;534;0.1105;
774;0.0003;534;0.1108;
775;0.0016;534;0.1111;
775;0.0008;535;0.1095;
776;0.0007;535;0.1097;
777;0.0007;535;0.1098;
778;0.0022;535;0.1098;
780;0.0030;535;0.1100;
781;0.0025;536;0.1092;
781;0.0019;536;0.1092;
782;0.0035;536;0.1094;
783;0.0020;536;0.1095;
785;0.0009;536;0.1095;
786;0.0034;537;0.1098;
787;0.0018;537;0.1096;
787;0.0017;537;0.1096;
788;0.0025;537;0.1094;
789;0.0013;537;0.1094;
791;0.0020;538;0.1111;
792;0.0024;538;0.1108;
792;0.0015;538;0.1106;
793;0.0005;538;0.1103;
794;0.0018;538;0.1100;
796;0.0019;539;0.1127;
797;0.0014;539;0.1123;
797;0.0028;539;0.1120;
798;0.0022;539;0.1117;
800;0.0018;539;0.1114;
;;540;0.1151;
;;540;0.1145;
;;540;0.1141;
;;540;0.1136;
;;540;0.1130;
;;541;0.1156;
;;541;0.1160;
;;541;0.1167;
;;541;0.1174;
;;541;0.1180;
;;542;0.1188;
;;542;0.1195;
;;542;0.1203;
;;542;0.1210;
;;542;0.1218;
;;543;0.1226;
;;543;0.1236;
;;543;0.1246;
;;543;0.1257;
;;543;0.1268;
;;544;0.1279;
;;544;0.1290;
;;544;0.1302;
;;544;0.1314;
;;544;0.1327;
;;545;0.1339;
;;545;0.1353;
;;545;0.1367;
;;545;0.1381;
;;545;0.1397;
;;546;0.1413;
;;546;0.1429;
;;546;0.1448;
;;546;0.1465;
;;546;0.1484;
;;547;0.1503;
;;547;0.1522;
;;547;0.1541;
;;547;0.1563;
;;547;0.1584;
;;548;0.1605;
;;548;0.1628;
;;548;0.1652;
;;548;0.1676;
;;548;0.1700;
;;549;0.1724;
;;549;0.1750;
;;549;0.1776;
;;549;0.1801;
;;549;0.1827;
;;550;0.1856;
;;550;0.1885;
;;550;0.1913;
;;550;0.1941;
;;550;0.1972;
;;551;0.2004;
;;551;0.2036;
;;551;0.2067;
;;551;0.2100;
;;551;0.2133;
;;552;0.2166;
;;552;0.2203;
;;552;0.2239;
;;552;0.2275;
;;552;0.2313;
;;553;0.2349;
;;553;0.2387;
;;553;0.2425;
;;553;0.2465;
;;553;0.2504;
;;554;0.2544;
;;554;0.2587;
;;554;0.2630;
;;554;0.2673;
;;554;0.2718;
;;555;0.2764;
;;555;0.2809;
;;555;0.2854;
;;555;0.2902;
;;555;0.2950;
;;556;0.3000;
;;556;0.3050;
;;556;0.3100;
;;556;0.3152;
;;556;0.3205;
;;557;0.3257;
;;557;0.3312;
;;557;0.3367;
;;557;0.3422;
;;557;0.3476;
;;558;0.3531;
;;558;0.3586;
;;558;0.3646;
;;558;0.3703;
;;558;0.3758;
;;559;0.3817;
;;559;0.3877;
;;559;0.3937;
;;559;0.3994;
;;559;0.4056;
;;560;0.4115;
;;560;0.4177;
;;560;0.4237;
;;560;0.4297;
;;560;0.4361;
;;561;0.4421;
;;561;0.4480;
;;561;0.4547;
;;561;0.4614;
;;561;0.4676;
;;562;0.4742;
;;562;0.4807;
;;562;0.4869;
;;562;0.4936;
;;562;0.5000;
;;563;0.5067;
;;563;0.5134;
;;563;0.5200;
;;563;0.5267;
;;563;0.5339;
;;564;0.5682;
;;564;0.5613;
;;564;0.5405;
;;564;0.5474;
;;564;0.5546;
;;565;0.6030;
;;565;0.5961;
;;565;0.5894;
;;565;0.5825;
;;565;0.5754;
;;566;0.6376;
;;566;0.6307;
;;566;0.6240;
;;566;0.6171;
;;566;0.6102;
;;567;0.6722;
;;567;0.6655;
;;567;0.6586;
;;567;0.6516;
;;567;0.6447;
;;568;0.7062;
;;568;0.6991;
;;568;0.6924;
;;568;0.6855;
;;568;0.6788;
;;569;0.7396;
;;569;0.7327;
;;569;0.7263;
;;569;0.7194;
;;569;0.7127;
;;570;0.7718;
;;570;0.7654;
;;570;0.7594;
;;570;0.7527;
;;570;0.7465;
;;571;0.8028;
;;571;0.7968;
;;571;0.7909;
;;571;0.7844;
;;571;0.7780;
;;572;0.8317;
;;572;0.8259;
;;572;0.8205;
;;572;0.8145;
;;572;0.8088;
;;573;0.8593;
;;573;0.8541;
;;573;0.8488;
;;573;0.8431;
;;573;0.8372;
;;574;0.8848;
;;574;0.8798;
;;574;0.8746;
;;574;0.8693;
;;574;0.8646;
;;575;0.9080;
;;575;0.9039;
;;575;0.8996;
;;575;0.8948;
;;575;0.8896;
;;576;0.9294;
;;576;0.9254;
;;576;0.9213;
;;576;0.9173;
;;576;0.9123;
;;577;0.9483;
;;577;0.9447;
;;577;0.9409;
;;577;0.9370;
;;577;0.9332;
;;578;0.9635;
;;578;0.9604;
;;578;0.9573;
;;578;0.9542;
;;578;0.9509;
;;579;0.9759;
;;579;0.9735;
;;579;0.9712;
;;579;0.9685;
;;579;0.9661;
;;580;0.9857;
;;580;0.9843;
;;580;0.9824;
;;580;0.9802;
;;580;0.9783;
;;581;0.9931;
;;581;0.9916;
;;581;0.9907;
;;581;0.9893;
;;581;0.9874;
;;582;0.9974;
;;582;0.9967;
;;582;0.9960;
;;582;0.9952;
;;582;0.9943;
;;583;0.9998;
;;583;1.0000;
;;583;0.9993;
;;583;0.9988;
;;583;0.9978;
;;584;1.0000;
;;584;1.0000;
;;584;0.9995;
;;584;0.9995;
;;584;0.9995;
;;585;0.9974;
;;585;0.9981;
;;585;0.9988;
;;585;0.9995;
;;585;0.9998;
;;586;0.9924;
;;586;0.9940;
;;586;0.9950;
;;586;0.9957;
;;586;0.9967;
;;587;0.9852;
;;587;0.9869;
;;587;0.9883;
;;587;0.9900;
;;587;0.9914;
;;588;0.9764;
;;588;0.9783;
;;588;0.9802;
;;588;0.9819;
;;588;0.9836;
;;589;0.9661;
;;589;0.9680;
;;589;0.9702;
;;589;0.9723;
;;589;0.9745;
;;590;0.9552;
;;590;0.9571;
;;590;0.9592;
;;590;0.9616;
;;590;0.9638;
;;591;0.9423;
;;591;0.9449;
;;591;0.9475;
;;591;0.9502;
;;591;0.9528;
;;592;0.9282;
;;592;0.9311;
;;592;0.9340;
;;592;0.9370;
;;592;0.9397;
;;593;0.9137;
;;593;0.9166;
;;593;0.9196;
;;593;0.9225;
;;593;0.9256;
;;594;0.8984;
;;594;0.9015;
;;594;0.9044;
;;594;0.9077;
;;594;0.9106;
;;595;0.8822;
;;595;0.8860;
;;595;0.8891;
;;595;0.8922;
;;595;0.8951;
;;596;0.8660;
;;596;0.8693;
;;596;0.8724;
;;596;0.8758;
;;596;0.8791;
;;597;0.8484;
;;597;0.8519;
;;597;0.8553;
;;597;0.8586;
;;597;0.8620;
;;598;0.8314;
;;598;0.8345;
;;598;0.8381;
;;598;0.8414;
;;598;0.8450;
;;599;0.8143;
;;599;0.8174;
;;599;0.8205;
;;599;0.8240;
;;599;0.8276;
;;600;0.7961;
;;600;0.8002;
;;600;0.8040;
;;600;0.8073;
;;600;0.8107;
;;601;0.7790;
;;601;0.7823;
;;601;0.7856;
;;601;0.7890;
;;601;0.7928;
;;602;0.7620;
;;602;0.7654;
;;602;0.7685;
;;602;0.7721;
;;602;0.7752;
;;603;0.7451;
;;603;0.7487;
;;603;0.7518;
;;603;0.7551;
;;603;0.7585;
;;604;0.7289;
;;604;0.7322;
;;604;0.7353;
;;604;0.7387;
;;604;0.7420;
;;605;0.7134;
;;605;0.7165;
;;605;0.7198;
;;605;0.7229;
;;605;0.7260;
;;606;0.6989;
;;606;0.7020;
;;606;0.7048;
;;606;0.7077;
;;606;0.7108;
;;607;0.6850;
;;607;0.6876;
;;607;0.6905;
;;607;0.6931;
;;607;0.6962;
;;608;0.6714;
;;608;0.6743;
;;608;0.6769;
;;608;0.6798;
;;608;0.6824;
;;609;0.6588;
;;609;0.6612;
;;609;0.6638;
;;609;0.6667;
;;609;0.6690;
;;610;0.6464;
;;610;0.6488;
;;610;0.6514;
;;610;0.6538;
;;610;0.6562;
;;611;0.6340;
;;611;0.6366;
;;611;0.6390;
;;611;0.6416;
;;611;0.6440;
;;612;0.6230;
;;612;0.6249;
;;612;0.6273;
;;612;0.6295;
;;612;0.6319;
;;613;0.6121;
;;613;0.6142;
;;613;0.6164;
;;613;0.6187;
;;613;0.6209;
;;614;0.6006;
;;614;0.6030;
;;614;0.6054;
;;614;0.6075;
;;614;0.6097;
;;615;0.5896;
;;615;0.5918;
;;615;0.5939;
;;615;0.5961;
;;615;0.5985;
;;616;0.5792;
;;616;0.5813;
;;616;0.5834;
;;616;0.5854;
;;616;0.5880;
;;617;0.5692;
;;617;0.5710;
;;617;0.5730;
;;617;0.5749;
;;617;0.5772;
;;618;0.5594;
;;618;0.5610;
;;618;0.5630;
;;618;0.5651;
;;618;0.5672;
;;619;0.5536;
;;619;0.5558;
;;619;0.5577;
;;619;0.5517;
;;619;0.5498;
;;620;0.5405;
;;620;0.5424;
;;620;0.5444;
;;620;0.5479;
;;620;0.5463;
;;621;0.5310;
;;621;0.5346;
;;621;0.5329;
;;621;0.5367;
;;621;0.5389;
;;622;0.5234;
;;622;0.5212;
;;622;0.5269;
;;622;0.5253;
;;622;0.5288;
;;623;0.5122;
;;623;0.5141;
;;623;0.5160;
;;623;0.5193;
;;623;0.5179;
;;624;0.5036;
;;624;0.5069;
;;624;0.5050;
;;624;0.5086;
;;624;0.5102;
;;625;0.4964;
;;625;0.4943;
;;625;0.4998;
;;625;0.4981;
;;625;0.5017;
;;626;0.4850;
;;626;0.4869;
;;626;0.4888;
;;626;0.4924;
;;626;0.4907;
;;627;0.4766;
;;627;0.4797;
;;627;0.4781;
;;627;0.4819;
;;627;0.4836;
;;628;0.4695;
;;628;0.4678;
;;628;0.4731;
;;628;0.4714;
;;628;0.4747;
;;629;0.4588;
;;629;0.4607;
;;629;0.4628;
;;629;0.4661;
;;629;0.4642;
;;630;0.4502;
;;630;0.4537;
;;630;0.4518;
;;630;0.4556;
;;630;0.4571;
;;631;0.4432;
;;631;0.4413;
;;631;0.4466;
;;631;0.4449;
;;631;0.4485;
;;632;0.4323;
;;632;0.4342;
;;632;0.4363;
;;632;0.4399;
;;632;0.4380;
;;633;0.4232;
;;633;0.4268;
;;633;0.4251;
;;633;0.4287;
;;633;0.4304;
;;634;0.4161;
;;634;0.4142;
;;634;0.4196;
;;634;0.4177;
;;634;0.4216;
;;635;0.4056;
;;635;0.4072;
;;635;0.4089;
;;635;0.4125;
;;635;0.4106;
;;636;0.3970;
;;636;0.4001;
;;636;0.3987;
;;636;0.4022;
;;636;0.4039;
;;637;0.3898;
;;637;0.3879;
;;637;0.3934;
;;637;0.3918;
;;637;0.3951;
;;638;0.3786;
;;638;0.3808;
;;638;0.3827;
;;638;0.3865;
;;638;0.3846;
;;639;0.3698;
;;639;0.3734;
;;639;0.3717;
;;639;0.3751;
;;639;0.3770;
;;640;0.3624;
;;640;0.3603;
;;640;0.3662;
;;640;0.3641;
;;640;0.3679;
;;641;0.3514;
;;641;0.3531;
;;641;0.3550;
;;641;0.3586;
;;641;0.3569;
;;642;0.3426;
;;642;0.3462;
;;642;0.3443;
;;642;0.3479;
;;642;0.3498;
;;643;0.3355;
;;643;0.3338;
;;643;0.3388;
;;643;0.3372;
;;643;0.3407;
;;644;0.3250;
;;644;0.3264;
;;644;0.3283;
;;644;0.3319;
;;644;0.3302;
;;645;0.3162;
;;645;0.3195;
;;645;0.3178;
;;645;0.3214;
;;645;0.3233;
;;646;0.3092;
;;646;0.3076;
;;646;0.3128;
;;646;0.3109;
;;646;0.3145;
;;647;0.2995;
;;647;0.3011;
;;647;0.3026;
;;647;0.3059;
;;647;0.3045;
;;648;0.2909;
;;648;0.2945;
;;648;0.2926;
;;648;0.2964;
;;648;0.2978;
;;649;0.2842;
;;649;0.2823;
;;649;0.2873;
;;649;0.2859;
;;649;0.2892;
;;650;0.2742;
;;650;0.2761;
;;650;0.2775;
;;650;0.2806;
;;650;0.2792;
;;651;0.2661;
;;651;0.2694;
;;651;0.2678;
;;651;0.2711;
;;651;0.2725;
;;652;0.2599;
;;652;0.2585;
;;652;0.2630;
;;652;0.2613;
;;652;0.2647;
;;653;0.2501;
;;653;0.2518;
;;653;0.2532;
;;653;0.2568;
;;653;0.2551;
;;654;0.2427;
;;654;0.2456;
;;654;0.2442;
;;654;0.2473;
;;654;0.2487;
;;655;0.2369;
;;655;0.2354;
;;655;0.2396;
;;655;0.2383;
;;655;0.2411;
;;656;0.2278;
;;656;0.2293;
;;656;0.2310;
;;656;0.2338;
;;656;0.2325;
;;657;0.2206;
;;657;0.2235;
;;657;0.2220;
;;657;0.2250;
;;657;0.2264;
;;658;0.2150;
;;658;0.2135;
;;658;0.2177;
;;658;0.2164;
;;658;0.2191;
;;659;0.2066;
;;659;0.2080;
;;659;0.2096;
;;659;0.2122;
;;659;0.2111;
;;660;0.2000;
;;660;0.2028;
;;660;0.2016;
;;660;0.2041;
;;660;0.2052;
;;661;0.1951;
;;661;0.1939;
;;661;0.1975;
;;661;0.1964;
;;661;0.1987;
;;662;0.1877;
;;662;0.1888;
;;662;0.1900;
;;662;0.1925;
;;662;0.1914;
;;663;0.1829;
;;663;0.1818;
;;663;0.1840;
;;663;0.1863;
;;663;0.1850;
;;664;0.1761;
;;664;0.1772;
;;664;0.1794;
;;664;0.1783;
;;664;0.1805;
;;665;0.1705;
;;665;0.1726;
;;665;0.1716;
;;665;0.1738;
;;665;0.1750;
;;666;0.1660;
;;666;0.1649;
;;666;0.1671;
;;666;0.1695;
;;666;0.1683;
;;667;0.1594;
;;667;0.1606;
;;667;0.1628;
;;667;0.1616;
;;667;0.1639;
;;668;0.1543;
;;668;0.1562;
;;668;0.1552;
;;668;0.1573;
;;668;0.1583;
;;669;0.1505;
;;669;0.1500;
;;669;0.1514;
;;669;0.1534;
;;669;0.1523;
;;670;0.1449;
;;670;0.1458;
;;670;0.1480;
;;670;0.1468;
;;670;0.1490;
;;671;0.1410;
;;671;0.1420;
;;671;0.1420;
;;671;0.1431;
;;671;0.1439;
;;672;0.1370;
;;672;0.1360;
;;672;0.1380;
;;672;0.1400;
;;672;0.1390;
;;673;0.1320;
;;673;0.1330;
;;673;0.1350;
;;673;0.1340;
;;673;0.1360;
;;674;0.1280;
;;674;0.1290;
;;674;0.1280;
;;674;0.1300;
;;674;0.1310;
;;675;0.1240;
;;675;0.1240;
;;675;0.1250;
;;675;0.1270;
;;675;0.1260;
;;676;0.1200;
;;676;0.1200;
;;676;0.1220;
;;676;0.1210;
;;676;0.1230;
;;677;0.1160;
;;677;0.1170;
;;677;0.1170;
;;677;0.1180;
;;677;0.1190;
;;678;0.1130;
;;678;0.1130;
;;678;0.1140;
;;678;0.1150;
;;678;0.1150;
;;679;0.1090;
;;679;0.1100;
;;679;0.1110;
;;679;0.1100;
;;679;0.1120;
;;680;0.1056;
;;680;0.1070;
;;680;0.1062;
;;680;0.1077;
;;680;0.1080;
;;681;0.1028;
;;681;0.1023;
;;681;0.1035;
;;681;0.1049;
;;681;0.1043;
;;682;0.0991;
;;682;0.0998;
;;682;0.1011;
;;682;0.1003;
;;682;0.1018;
;;683;0.0958;
;;683;0.0971;
;;683;0.0965;
;;683;0.0977;
;;683;0.0984;
;;684;0.0934;
;;684;0.0928;
;;684;0.0940;
;;684;0.0952;
;;684;0.0946;
;;685;0.0898;
;;685;0.0904;
;;685;0.0916;
;;685;0.0909;
;;685;0.0921;
;;686;0.0874;
;;686;0.0883;
;;686;0.0879;
;;686;0.0888;
;;686;0.0893;
;;687;0.0854;
;;687;0.0848;
;;687;0.0859;
;;687;0.0869;
;;687;0.0864;
;;688;0.0822;
;;688;0.0828;
;;688;0.0838;
;;688;0.0832;
;;688;0.0843;
;;689;0.0800;
;;689;0.0808;
;;689;0.0804;
;;689;0.0813;
;;689;0.0818;
;;690;0.0782;
;;690;0.0777;
;;690;0.0787;
;;690;0.0796;
;;690;0.0791;
;;691;0.0754;
;;691;0.0758;
;;691;0.0768;
;;691;0.0763;
;;691;0.0773;
;;692;0.0732;
;;692;0.0742;
;;692;0.0737;
;;692;0.0746;
;;692;0.0750;
;;693;0.0716;
;;693;0.0711;
;;693;0.0719;
;;693;0.0728;
;;693;0.0723;
;;694;0.0691;
;;694;0.0695;
;;694;0.0703;
;;694;0.0699;
;;694;0.0707;
;;695;0.0672;
;;695;0.0680;
;;695;0.0676;
;;695;0.0684;
;;695;0.0687;
;;696;0.0657;
;;696;0.0654;
;;696;0.0661;
;;696;0.0669;
;;696;0.0665;
;;697;0.0637;
;;697;0.0641;
;;697;0.0647;
;;697;0.0644;
;;697;0.0650;
;;698;0.0619;
;;698;0.0626;
;;698;0.0622;
;;698;0.0630;
;;698;0.0633;
;;699;0.0606;
;;699;0.0603;
;;699;0.0609;
;;699;0.0616;
;;699;0.0612;
