Absorption wavelength (nm);normalized Absorption;emission wavelength (nm);Normalized emission;
299;0.3040;500;0.0729;
301;0.2972;500;0.0715;
302;0.2952;501;0.0705;
302;0.2889;501;0.0701;
304;0.2774;502;0.0704;
304;0.2718;502;0.0707;
305;0.2645;503;0.0710;
307;0.2536;503;0.0708;
307;0.2470;504;0.0694;
309;0.2386;504;0.0703;
309;0.2328;505;0.0686;
310;0.2290;505;0.0676;
312;0.2199;506;0.0669;
312;0.2239;506;0.0665;
314;0.2159;507;0.0657;
315;0.2114;507;0.0662;
315;0.2075;508;0.0650;
317;0.2002;508;0.0654;
317;0.2035;509;0.0632;
319;0.1942;509;0.0642;
320;0.1894;510;0.0623;
320;0.1877;510;0.0615;
322;0.1857;511;0.0602;
322;0.1863;511;0.0608;
324;0.1868;512;0.0596;
325;0.1859;512;0.0591;
325;0.1860;513;0.0587;
327;0.1824;513;0.0580;
327;0.1788;514;0.0574;
329;0.1717;514;0.0571;
330;0.1642;515;0.0568;
330;0.1584;515;0.0570;
332;0.1477;516;0.0571;
332;0.1524;516;0.0577;
334;0.1441;517;0.0584;
334;0.1438;517;0.0588;
335;0.1449;518;0.0590;
337;0.1476;518;0.0590;
337;0.1526;519;0.0576;
339;0.1650;519;0.0586;
339;0.1585;520;0.0566;
340;0.1700;520;0.0556;
342;0.1775;521;0.0548;
342;0.1828;521;0.0540;
344;0.1897;522;0.0536;
344;0.1946;522;0.0533;
346;0.1969;523;0.0533;
347;0.1980;523;0.0529;
347;0.1996;524;0.0524;
349;0.2007;524;0.0527;
349;0.1997;525;0.0522;
351;0.1979;525;0.0524;
351;0.1997;526;0.0524;
353;0.1983;526;0.0524;
354;0.1984;527;0.0523;
354;0.1973;527;0.0522;
356;0.1982;528;0.0520;
356;0.1983;528;0.0521;
358;0.2013;529;0.0520;
358;0.1995;529;0.0523;
360;0.2046;530;0.0521;
361;0.2068;530;0.0521;
361;0.2103;531;0.0522;
363;0.2126;531;0.0525;
363;0.2156;532;0.0529;
365;0.2252;532;0.0536;
365;0.2220;533;0.0547;
367;0.2306;533;0.0541;
367;0.2347;534;0.0554;
368;0.2406;534;0.0559;
370;0.2457;535;0.0566;
370;0.2492;535;0.0578;
372;0.2547;536;0.0590;
372;0.2530;536;0.0605;
374;0.2562;537;0.0658;
374;0.2580;537;0.0627;
376;0.2583;538;0.0694;
376;0.2588;538;0.0736;
377;0.2588;539;0.0781;
379;0.2591;539;0.0825;
379;0.2604;540;0.0865;
381;0.2623;540;0.0906;
381;0.2627;541;0.1000;
383;0.2663;541;0.0949;
383;0.2652;542;0.1054;
385;0.2699;542;0.1114;
385;0.2728;543;0.1181;
387;0.2774;543;0.1258;
387;0.2806;544;0.1340;
388;0.2854;544;0.1437;
390;0.2920;545;0.1553;
390;0.2974;545;0.1685;
392;0.3036;546;0.1977;
392;0.3106;546;0.1827;
394;0.3189;547;0.2131;
394;0.3262;547;0.2289;
396;0.3453;548;0.2463;
396;0.3364;548;0.2658;
398;0.3543;549;0.2885;
398;0.3630;549;0.3142;
400;0.3724;550;0.3708;
400;0.3828;550;0.3423;
402;0.3940;551;0.4000;
402;0.4024;551;0.4286;
403;0.4117;552;0.4561;
405;0.4223;552;0.4838;
405;0.4335;553;0.5130;
407;0.4454;553;0.5422;
407;0.4535;554;0.5728;
409;0.4751;554;0.6058;
409;0.4655;555;0.6725;
411;0.4874;555;0.6396;
411;0.4992;556;0.7406;
413;0.5125;556;0.7067;
413;0.5224;557;0.7713;
415;0.5356;557;0.7995;
415;0.5476;558;0.8541;
417;0.5740;558;0.8281;
417;0.5642;559;0.8763;
419;0.5885;559;0.8980;
419;0.5996;560;0.9192;
421;0.6122;560;0.9354;
421;0.6255;561;0.9648;
423;0.6518;561;0.9491;
423;0.6415;562;0.9775;
425;0.6763;562;0.9863;
425;0.6653;563;0.9944;
427;0.6914;563;1.0003;
427;0.7067;564;1.0000;
429;0.7226;564;0.9999;
429;0.7356;565;0.9978;
431;0.7516;565;0.9996;
431;0.7682;566;0.9953;
433;0.8018;566;0.9933;
433;0.7878;567;0.9885;
435;0.8180;567;0.9814;
435;0.8308;568;0.9734;
437;0.8470;568;0.9638;
437;0.8627;569;0.9521;
439;0.8882;569;0.9382;
439;0.8777;570;0.9073;
441;0.9016;570;0.9239;
441;0.9104;571;0.8884;
443;0.9217;571;0.8686;
443;0.9291;572;0.8493;
445;0.9336;572;0.8307;
445;0.9341;573;0.7984;
447;0.9297;573;0.8135;
447;0.9207;574;0.7660;
449;0.9042;574;0.7824;
450;0.8666;575;0.7484;
450;0.8844;575;0.7304;
452;0.8397;576;0.6956;
452;0.8154;576;0.7118;
454;0.7855;577;0.6661;
454;0.7610;577;0.6802;
456;0.7372;578;0.6528;
456;0.7210;578;0.6407;
458;0.6985;579;0.6290;
458;0.7061;579;0.6180;
460;0.6982;580;0.5946;
460;0.7059;580;0.6064;
462;0.7167;581;0.5819;
462;0.7332;581;0.5690;
463;0.7573;582;0.5560;
465;0.8146;582;0.5438;
465;0.7866;583;0.5325;
467;0.8707;583;0.5225;
467;0.8449;584;0.5039;
469;0.9284;584;0.5128;
469;0.9000;585;0.4943;
471;0.9747;585;0.4846;
471;0.9561;586;0.4752;
473;0.9917;586;0.4665;
474;1.0022;587;0.4522;
474;1.0043;587;0.4585;
476;0.9948;588;0.4402;
476;0.9765;588;0.4461;
478;0.9444;589;0.4345;
478;0.9112;589;0.4284;
480;0.8588;590;0.4222;
480;0.7995;590;0.4164;
481;0.7195;591;0.4103;
483;0.5774;591;0.4042;
483;0.6365;592;0.3977;
485;0.4370;592;0.3912;
485;0.5023;593;0.3808;
487;0.3536;593;0.3857;
487;0.2954;594;0.3760;
488;0.2419;594;0.3725;
490;0.1952;595;0.3690;
490;0.1616;595;0.3704;
492;0.1282;596;0.3693;
492;0.1010;596;0.3713;
494;0.0788;597;0.3792;
495;0.0495;597;0.3749;
495;0.0606;598;0.3874;
497;0.0369;598;0.3835;
497;0.0278;599;0.3923;
499;0.0191;599;0.3959;
499;0.0128;600;0.3993;
500;0.0079;600;0.4032;
502;0.0033;601;0.4068;
502;0.0003;601;0.4079;
;;602;0.4093;
;;602;0.4101;
;;603;0.4095;
;;603;0.4094;
;;604;0.4117;
;;604;0.4135;
;;605;0.4156;
;;605;0.4192;
;;606;0.4221;
;;606;0.4240;
;;607;0.4262;
;;607;0.4284;
;;608;0.4296;
;;608;0.4312;
;;609;0.4335;
;;609;0.4354;
;;610;0.4374;
;;610;0.4388;
;;611;0.4377;
;;611;0.4390;
;;612;0.4329;
;;612;0.4362;
;;613;0.4297;
;;613;0.4259;
;;614;0.4215;
;;614;0.4172;
;;615;0.4131;
;;615;0.4085;
;;616;0.4042;
;;616;0.3997;
;;617;0.3885;
;;617;0.3938;
;;618;0.3825;
;;618;0.3761;
;;619;0.3700;
;;619;0.3646;
;;620;0.3518;
;;620;0.3575;
;;621;0.3455;
;;621;0.3392;
;;622;0.3327;
;;622;0.3269;
;;623;0.3125;
;;623;0.3198;
;;624;0.3045;
;;624;0.2956;
;;625;0.2866;
;;625;0.2788;
;;626;0.2724;
;;626;0.2665;
;;627;0.2618;
;;627;0.2571;
;;628;0.2512;
;;628;0.2445;
;;629;0.2382;
;;629;0.2321;
;;630;0.2216;
;;630;0.2264;
;;631;0.2129;
;;631;0.2172;
;;632;0.2034;
;;632;0.2082;
;;633;0.1984;
;;633;0.1933;
;;634;0.1880;
;;634;0.1834;
;;635;0.1752;
;;635;0.1791;
;;636;0.1686;
;;636;0.1719;
;;637;0.1632;
;;637;0.1660;
;;638;0.1602;
;;638;0.1569;
;;639;0.1501;
;;639;0.1540;
;;640;0.1422;
;;640;0.1462;
;;641;0.1386;
;;641;0.1348;
;;642;0.1313;
;;642;0.1282;
;;643;0.1229;
;;643;0.1255;
;;644;0.1183;
;;644;0.1205;
;;645;0.1136;
;;645;0.1158;
;;646;0.1090;
;;646;0.1114;
;;647;0.1057;
;;647;0.1071;
;;648;0.1024;
;;648;0.1040;
;;649;0.1016;
;;649;0.1004;
;;650;0.0992;
;;650;0.0980;
;;651;0.0967;
;;651;0.0949;
;;652;0.0917;
;;652;0.0932;
;;653;0.0902;
;;653;0.0889;
;;654;0.0868;
;;654;0.0877;
;;655;0.0856;
;;655;0.0860;
;;656;0.0855;
;;656;0.0855;
;;657;0.0850;
;;657;0.0852;
;;658;0.0844;
;;658;0.0835;
;;659;0.0818;
;;659;0.0826;
;;660;0.0807;
;;660;0.0795;
;;661;0.0787;
;;661;0.0782;
;;662;0.0782;
;;662;0.0780;
;;663;0.0796;
;;663;0.0790;
;;664;0.0796;
;;664;0.0793;
;;665;0.0783;
;;665;0.0770;
;;666;0.0749;
;;666;0.0757;
;;667;0.0740;
;;667;0.0735;
;;668;0.0731;
;;668;0.0727;
;;669;0.0720;
;;669;0.0720;
;;670;0.0712;
;;670;0.0718;
;;671;0.0704;
;;671;0.0694;
;;672;0.0677;
;;672;0.0660;
;;673;0.0645;
;;673;0.0635;
;;674;0.0623;
;;674;0.0626;
;;675;0.0618;
;;675;0.0622;
;;676;0.0611;
;;676;0.0603;
;;677;0.0592;
;;677;0.0575;
;;678;0.0561;
;;678;0.0548;
;;679;0.0534;
;;679;0.0522;
;;680;0.0514;
;;680;0.0508;
;;681;0.0499;
;;681;0.0492;
;;682;0.0474;
;;682;0.0484;
;;683;0.0463;
;;683;0.0454;
;;684;0.0445;
;;684;0.0436;
;;685;0.0421;
;;685;0.0428;
;;686;0.0414;
;;686;0.0405;
;;687;0.0396;
;;687;0.0390;
;;688;0.0384;
;;688;0.0379;
;;689;0.0367;
;;689;0.0373;
;;690;0.0358;
;;690;0.0345;
;;691;0.0330;
;;691;0.0318;
;;692;0.0308;
;;692;0.0301;
;;693;0.0295;
;;693;0.0296;
;;694;0.0294;
;;694;0.0292;
;;695;0.0290;
;;695;0.0287;
;;696;0.0282;
;;696;0.0274;
;;697;0.0260;
;;697;0.0268;
;;698;0.0252;
;;698;0.0245;
;;699;0.0239;
;;699;0.0232;
;;700;0.0220;
;;700;0.0226;
;;701;0.0213;
;;701;0.0207;
;;702;0.0202;
;;702;0.0196;
;;703;0.0193;
;;703;0.0191;
;;704;0.0181;
;;704;0.0186;
;;705;0.0178;
;;705;0.0171;
;;706;0.0166;
;;706;0.0162;
;;707;0.0162;
;;707;0.0160;
;;708;0.0155;
;;708;0.0158;
;;709;0.0152;
;;709;0.0146;
;;710;0.0142;
;;710;0.0139;
;;711;0.0136;
;;711;0.0134;
;;712;0.0133;
;;712;0.0134;
;;713;0.0132;
;;713;0.0132;
;;714;0.0130;
;;714;0.0127;
;;715;0.0124;
;;715;0.0126;
;;716;0.0122;
;;716;0.0119;
;;717;0.0116;
;;717;0.0111;
;;718;0.0107;
;;718;0.0105;
;;719;0.0106;
;;719;0.0106;
;;720;0.0107;
;;720;0.0107;
;;721;0.0106;
;;721;0.0102;
;;722;0.0100;
;;722;0.0098;
;;723;0.0098;
;;723;0.0098;
;;724;0.0099;
;;724;0.0099;
;;725;0.0098;
;;725;0.0095;
;;726;0.0093;
;;726;0.0091;
;;727;0.0090;
;;727;0.0090;
;;728;0.0091;
;;728;0.0092;
;;729;0.0092;
;;729;0.0090;
;;730;0.0088;
;;730;0.0085;
;;731;0.0082;
;;731;0.0078;
;;732;0.0074;
;;732;0.0072;
;;733;0.0070;
;;733;0.0069;
;;734;0.0066;
;;734;0.0068;
;;735;0.0065;
;;735;0.0065;
;;736;0.0064;
;;736;0.0064;
;;737;0.0066;
;;737;0.0068;
;;738;0.0070;
;;738;0.0069;
;;739;0.0071;
;;739;0.0072;
;;740;0.0071;
;;740;0.0071;
;;741;0.0068;
;;741;0.0070;
;;742;0.0065;
;;742;0.0062;
;;743;0.0059;
;;743;0.0058;
;;744;0.0058;
;;744;0.0058;
;;745;0.0059;
;;745;0.0060;
;;746;0.0060;
;;746;0.0060;
;;747;0.0059;
;;747;0.0059;
;;748;0.0057;
;;748;0.0056;
;;749;0.0054;
;;749;0.0051;
;;750;0.0050;
